File: SRC_files/py_figures/XRD_data/n1000_p30.txt
0.0 0.0
0.0100022 5.94147e-18
0.0200043 0.0
0.0300065 2.33937e-18
0.0400087 0.0
0.0500108 1.93737e-18
0.060013 0.0
0.0700152 2.0821e-18
0.0800173 3.37883e-18
0.0900195 0.0
0.100022 3.11665e-20
0.110024 0.0
0.120026 9.38452e-19
0.130028 0.0
0.14003 3.59396e-19
0.150033 0.0
0.160035 0.0
0.170037 3.02165e-18
0.180039 0.0
0.190041 3.58504e-18
0.200043 0.0
0.210046 3.06397e-19
0.220048 0.0
0.23005 0.0
0.240052 1.8779e-19
0.250054 0.0
0.260056 1.47022e-18
0.270059 0.0
0.280061 2.39391e-19
0.290063 0.0
0.300065 0.0
0.310067 4.74809e-19
0.320069 0.0
0.330072 2.13359e-19
0.340074 0.0
0.350076 3.51081e-19
0.360078 0.0
0.37008 9.78578e-18
0.380082 3.24704e-18
0.390085 0.0
0.400087 6.31182e-19
0.410089 0.0
0.420091 1.69102e-19
0.430093 0.0
0.440095 2.83695e-19
0.450098 0.0
0.4601 0.0
0.470102 1.62893e-20
0.480104 0.0
0.490106 3.36162e-19
0.500108 0.0
0.510111 1.7958e-19
0.520113 0.0
0.530115 0.0
0.540117 1.62127e-19
0.550119 0.0
0.560121 2.08547e-19
0.570124 9.11843e-21
0.580126 1.51287e-18
0.590128 2.08278e-20
0.60013 1.18758e-19
0.610132 9.54709e-19
0.620134 2.55143e-19
0.630137 8.96563e-19
0.640139 2.32201e-20
0.650141 3.24167e-19
0.660143 1.87511e-19
0.670145 3.43905e-19
0.680147 1.949e-18
0.69015 7.29246e-20
0.700152 2.10763e-18
0.710154 2.42113e-20
0.720156 5.52832e-19
0.730158 6.74076e-20
0.74016 5.82511e-19
0.750163 6.93879e-20
0.760165 6.29075e-20
0.770167 8.72474e-19
0.780169 9.29658e-20
0.790171 1.08027e-18
0.800173 3.2384e-18
0.810176 1.87184e-19
0.820178 1.59455e-19
0.83018 0.0
0.840182 6.65736e-21
0.850184 0.0
0.860186 1.31192e-17
0.870189 6.33257e-20
0.880191 6.34747e-19
0.890193 6.22571e-20
0.900195 0.0
0.910197 2.49079e-19
0.920199 2.60903e-19
0.930202 3.36012e-18
0.940204 6.33311e-20
0.950206 1.15e-18
0.960208 1.22749e-18
0.97021 4.02292e-19
0.980212 5.43877e-19
0.990215 3.40889e-19
1.00022 1.21382e-18
1.01022 1.44634e-19
1.02022 2.28843e-18
1.03022 1.40402e-19
1.04023 1.52578e-18
1.05023 6.62673e-18
1.06023 1.17801e-19
1.07023 1.98956e-17
1.08023 9.82466e-20
1.09024 6.25926e-19
1.10024 6.59574e-20
1.11024 1.05277e-18
1.12024 1.46408e-19
1.13024 4.86045e-19
1.14025 4.17223e+07
1.15025 3.7728e+07
1.16025 3.65211e+07
1.17025 1.99205e+07
1.18026 1.55604e+07
1.19026 7.42961e+06
1.20026 1.18942e+07
1.21026 1.0804e+07
1.22026 7.05281e+06
1.23027 3.29193e+06
1.24027 6.50383e+06
1.25027 6.96173e+06
1.26027 6.81635e+06
1.27028 1.6447e+06
1.28028 9.38709e+06
1.29028 1.15622e+07
1.30028 4.65109e+06
1.31028 4.18428e+06
1.32029 3.10638e+06
1.33029 7.15476e+06
1.34029 5.23021e+06
1.35029 5.25901e+06
1.36029 2.13731e+06
1.3703 2.15942e+06
1.3803 1.02732e+06
1.3903 2.23243e+06
1.4003 1.04958e+06
1.41031 2.71806e+06
1.42031 1.46107e+06
1.43031 3.03587e+06
1.44031 2.66739e+06
1.45031 9.69938e+06
1.46032 694330
1.47032 1.66489e+06
1.48032 69208.9
1.49032 586061
1.50033 3.19348e+06
1.51033 1.43729e+06
1.52033 2.60544e+06
1.53033 4.18824e+06
1.54033 2.43452e+06
1.55034 2.3577e+06
1.56034 5.13559e+06
1.57034 1.47407e+06
1.58034 2.37475e+06
1.59034 7.80338e+06
1.60035 6.57142e+06
1.61035 3.44686e+06
1.62035 1.49262e+06
1.63035 3.79183e+06
1.64036 3.00451e+06
1.65036 136315
1.66036 564859
1.67036 1.52061e+06
1.68036 628148
1.69037 1.32042e+06
1.70037 211547
1.71037 1.01429e+06
1.72037 1.90869e+06
1.73038 1.69384e+06
1.74038 8312.88
1.75038 638889
1.76038 3.29513e+06
1.77038 1.83113e+06
1.78039 500532
1.79039 1.18192e+06
1.80039 525713
1.81039 668738
1.82039 766078
1.8304 602549
1.8404 2.76436e+06
1.8504 1.07641e+06
1.8604 240483
1.87041 208057
1.88041 567738
1.89041 866336
1.90041 1.47121e+06
1.91041 831807
1.92042 582937
1.93042 181560
1.94042 196730
1.95042 1.18957e+06
1.96042 2.15648e+06
1.97043 2.59102e+06
1.98043 1.31365e+06
1.99043 1.36176e+06
2.00043 917438
2.01044 0.0606198
2.02044 752240
2.03044 413140
2.04044 1.62175e+06
2.05044 392737
2.06045 458769
2.07045 0.0152045
2.08045 570706
2.09045 282771
2.10046 965731
2.11046 1.01682e+06
2.12046 405927
2.13046 1.65231e+06
2.14046 871011
2.15047 20277.9
2.16047 1.91063e+06
2.17047 349602
2.18047 665121
2.19047 5100.4
2.20048 156115
2.21048 0.0194305
2.22048 373771
2.23048 708101
2.24049 425263
2.25049 299975
2.26049 220888
2.27049 4.3538e+06
2.28049 2.31418e+06
2.2905 1.38289e+06
2.3005 1.21031e+06
2.3105 980154
2.3205 644561
2.33051 913757
2.34051 1.58964e+06
2.35051 1.21631e+06
2.36051 775962
2.37051 687737
2.38052 1.15177e+08
2.39052 1.3803e+06
2.40052 1.19669e+10
2.41052 1.16171e+06
2.42052 1.57185e+06
2.43053 1.17588e+06
2.44053 975920
2.45053 1.28578e+06
2.46053 1.45871e+06
2.47054 795718
2.48054 1.63598e+06
2.49054 576873
2.50054 787746
2.51054 511072
2.52055 742774
2.53055 592034
2.54055 1.45226e+06
2.55055 1.13305e+06
2.56055 763472
2.57056 456823
2.58056 1.2825e+06
2.59056 1.8383e+06
2.60056 397922
2.61057 722135
2.62057 356614
2.63057 611492
2.64057 1.52217e+06
2.65057 539408
2.66058 924845
2.67058 902871
2.68058 1.55458e+06
2.69058 420828
2.70059 1.10065e+06
2.71059 1.02889e+06
2.72059 853452
2.73059 1.0087e+06
2.74059 1.72557e+06
2.7506 251457
2.7606 1.71735e+06
2.7706 1.31291e+06
2.7806 695903
2.7906 2.23004e+06
2.80061 643429
2.81061 780174
2.82061 1.18634e+06
2.83061 867756
2.84062 639692
2.85062 1.03635e+06
2.85712 0.0