File: SRC_files/py_figures/XRD_data/n1000_p20.txt
0.0 0.0
0.0100022 5.94147e-18
0.0200043 0.0
0.0300065 2.33937e-18
0.0400087 0.0
0.0500108 1.93737e-18
0.060013 0.0
0.0700152 2.0821e-18
0.0800173 3.37883e-18
0.0900195 0.0
0.100022 3.11665e-20
0.110024 0.0
0.120026 9.38452e-19
0.130028 0.0
0.14003 3.59396e-19
0.150033 0.0
0.160035 0.0
0.170037 3.02165e-18
0.180039 0.0
0.190041 3.58504e-18
0.200043 0.0
0.210046 3.06397e-19
0.220048 0.0
0.23005 0.0
0.240052 1.8779e-19
0.250054 0.0
0.260056 1.47022e-18
0.270059 0.0
0.280061 2.39391e-19
0.290063 0.0
0.300065 0.0
0.310067 4.74809e-19
0.320069 0.0
0.330072 2.13359e-19
0.340074 0.0
0.350076 3.51081e-19
0.360078 0.0
0.37008 9.78578e-18
0.380082 3.24704e-18
0.390085 0.0
0.400087 6.31182e-19
0.410089 0.0
0.420091 1.69102e-19
0.430093 0.0
0.440095 2.83695e-19
0.450098 0.0
0.4601 0.0
0.470102 1.62893e-20
0.480104 0.0
0.490106 3.36162e-19
0.500108 0.0
0.510111 1.7958e-19
0.520113 0.0
0.530115 0.0
0.540117 1.62127e-19
0.550119 0.0
0.560121 2.08547e-19
0.570124 1.15934e-20
0.580126 1.52164e-18
0.590128 7.78608e-21
0.60013 3.74053e-21
0.610132 9.87551e-19
0.620134 1.14182e-19
0.630137 1.03574e-18
0.640139 1.35354e-19
0.650141 3.28743e-19
0.660143 1.4497e-19
0.670145 4.67129e-19
0.680147 2.00596e-18
0.69015 5.30173e-20
0.700152 2.10763e-18
0.710154 3.52144e-19
0.720156 5.52832e-19
0.730158 1.51777e-19
0.74016 5.34925e-19
0.750163 7.56713e-20
0.760165 2.23859e-19
0.770167 1.02738e-18
0.780169 5.16889e-20
0.790171 1.08027e-18
0.800173 4.77369e-18
0.810176 1.16329e-19
0.820178 1.75171e-19
0.83018 0.0
0.840182 6.65736e-21
0.850184 0.0
0.860186 1.30299e-17
0.870189 5.97321e-20
0.880191 6.34747e-19
0.890193 3.38004e-19
0.900195 0.0
0.910197 2.38256e-19
0.920199 9.10807e-21
0.930202 3.11198e-18
0.940204 1.09573e-19
0.950206 1.85072e-18
0.960208 1.48793e-18
0.97021 1.26705e-19
0.980212 5.43877e-19
0.990215 3.40889e-19
1.00022 1.29026e-18
1.01022 1.44634e-19
1.02022 2.1113e-18
1.03022 1.40402e-19
1.04023 1.76971e-18
1.05023 6.62673e-18
1.06023 5.45184e-20
1.07023 1.98269e-17
1.08023 9.82466e-20
1.09024 6.25926e-19
1.10024 1.05113e-19
1.11024 1.27412e-18
1.12024 1.01747e-19
1.13024 4.86045e-19
1.14025 4.55453e+07
1.15025 2.35314e+07
1.16025 2.51497e+07
1.17025 3.13442e+07
1.18026 4.58924e+06
1.19026 1.64275e+07
1.20026 1.41562e+07
1.21026 6.28021e+06
1.22026 4.68836e+06
1.23027 6.1748e+06
1.24027 1.5116e+06
1.25027 3.79267e+06
1.26027 3.56232e+06
1.27028 8.57962e+06
1.28028 5.4912e+06
1.29028 5.47401e+06
1.30028 8.1802e+06
1.31028 1.5593e+07
1.32029 261170
1.33029 5.51332e+06
1.34029 3.97584e+06
1.35029 5.20726e+06
1.36029 1.79931e+06
1.3703 1.43649e+06
1.3803 896573
1.3903 2.60887e+06
1.4003 3.6542e+06
1.41031 2.79145e+06
1.42031 5.32615e+06
1.43031 4.99059e+06
1.44031 2.25802e+06
1.45031 2.14135e+06
1.46032 504686
1.47032 2.72387e+06
1.48032 482348
1.49032 4.52858e+06
1.50033 1.84612e+06
1.51033 881720
1.52033 1.50205e+06
1.53033 3.48718e+06
1.54033 493254
1.55034 854753
1.56034 3.05667e+06
1.57034 1.18705e+06
1.58034 770318
1.59034 430350
1.60035 810909
1.61035 1.64199e+06
1.62035 418207
1.63035 511560
1.64036 1.22036e+06
1.65036 952512
1.66036 176155
1.67036 762964
1.68036 264299
1.69037 111017
1.70037 128196
1.71037 638663
1.72037 2.64721e+06
1.73038 1.42103e+06
1.74038 324759
1.75038 1.10391e+06
1.76038 540255
1.77038 1.73464e+06
1.78039 614300
1.79039 782279
1.80039 1.92999e+06
1.81039 671641
1.82039 620576
1.8304 1.67998e+06
1.8404 243576
1.8504 774019
1.8604 292404
1.87041 581012
1.88041 1.39395e+06
1.89041 308023
1.90041 184797
1.91041 1.53857e+06
1.92042 1.09466e+06
1.93042 358805
1.94042 1.02066e+06
1.95042 1.13483e+06
1.96042 187860
1.97043 284550
1.98043 407387
1.99043 155323
2.00043 1.53676e+06
2.01044 0.0109779
2.02044 335311
2.03044 113685
2.04044 1.04123e+06
2.05044 340082
2.06045 887383
2.07045 0.0134885
2.08045 275134
2.09045 68255.8
2.10046 301258
2.11046 548523
2.12046 82132.4
2.13046 674687
2.14046 195123
2.15047 258169
2.16047 89606.8
2.17047 435909
2.18047 417764
2.19047 114.095
2.20048 5689.89
2.21048 0.0291322
2.22048 390976
2.23048 175181
2.24049 698760
2.25049 153040
2.26049 741023
2.27049 4.63019e+06
2.28049 1.43457e+06
2.2905 2.3721e+06
2.3005 1.67298e+06
2.3105 1.58933e+06
2.3205 732121
2.33051 998676
2.34051 1.24433e+06
2.35051 1.55834e+06
2.36051 733707
2.37051 1.54574e+06
2.38052 1.59386e+08
2.39052 1.79809e+06
2.40052 1.19663e+10
2.41052 587513
2.42052 1.00332e+06
2.43053 661529
2.44053 721560
2.45053 339229
2.46053 703000
2.47054 1.56021e+06
2.48054 1.14086e+06
2.49054 804886
2.50054 855356
2.51054 806491
2.52055 2.18099e+06
2.53055 878500
2.54055 387569
2.55055 801778
2.56055 1.35315e+06
2.57056 1.513e+06
2.58056 947380
2.59056 1.62597e+06
2.60056 419059
2.61057 929985
2.62057 1.41234e+06
2.63057 653769
2.64057 496166
2.65057 1.12662e+06
2.66058 1.29653e+06
2.67058 494008
2.68058 1.14647e+06
2.69058 814039
2.70059 867664
2.71059 441804
2.72059 622214
2.73059 210088
2.74059 1.49732e+06
2.7506 1.07182e+06
2.7606 1.3726e+06
2.7706 1.4784e+06
2.7806 810236
2.7906 952291
2.80061 921304
2.81061 1.01577e+06
2.82061 923494
2.83061 1.43766e+06
2.84062 474268
2.85062 702954
2.85712 0.0