File: SRC_files/py_figures/XRD_data/n1000_p10.txt
0.0 0.0
0.0100022 5.94147e-18
0.0200043 0.0
0.0300065 2.33937e-18
0.0400087 0.0
0.0500108 1.93737e-18
0.060013 0.0
0.0700152 2.0821e-18
0.0800173 3.37883e-18
0.0900195 0.0
0.100022 3.11665e-20
0.110024 0.0
0.120026 9.38452e-19
0.130028 0.0
0.14003 3.59396e-19
0.150033 0.0
0.160035 0.0
0.170037 3.02165e-18
0.180039 0.0
0.190041 3.58504e-18
0.200043 0.0
0.210046 3.06397e-19
0.220048 0.0
0.23005 0.0
0.240052 1.8779e-19
0.250054 0.0
0.260056 1.47022e-18
0.270059 0.0
0.280061 2.39391e-19
0.290063 0.0
0.300065 0.0
0.310067 4.74809e-19
0.320069 0.0
0.330072 2.13359e-19
0.340074 0.0
0.350076 3.51081e-19
0.360078 0.0
0.37008 9.78578e-18
0.380082 3.24704e-18
0.390085 0.0
0.400087 6.31182e-19
0.410089 0.0
0.420091 1.69102e-19
0.430093 0.0
0.440095 2.83695e-19
0.450098 0.0
0.4601 0.0
0.470102 1.62893e-20
0.480104 0.0
0.490106 3.36162e-19
0.500108 0.0
0.510111 1.7958e-19
0.520113 0.0
0.530115 0.0
0.540117 1.62127e-19
0.550119 0.0
0.560121 2.08547e-19
0.570124 8.3879e-21
0.580126 1.51431e-18
0.590128 6.11623e-21
0.60013 2.61758e-20
0.610132 9.44284e-19
0.620134 2.46516e-19
0.630137 1.05622e-18
0.640139 1.04247e-20
0.650141 3.9437e-19
0.660143 1.10174e-20
0.670145 4.44448e-19
0.680147 1.98109e-18
0.69015 3.38199e-20
0.700152 2.10763e-18
0.710154 1.33499e-19
0.720156 5.52832e-19
0.730158 2.20577e-19
0.74016 5.26802e-19
0.750163 2.85203e-19
0.760165 3.41875e-20
0.770167 8.69722e-19
0.780169 8.36423e-20
0.790171 1.08027e-18
0.800173 4.2278e-18
0.810176 1.37094e-19
0.820178 7.26975e-20
0.83018 0.0
0.840182 6.65736e-21
0.850184 0.0
0.860186 1.30184e-17
0.870189 1.96198e-20
0.880191 6.34747e-19
0.890193 3.88573e-19
0.900195 0.0
0.910197 6.56949e-19
0.920199 9.59183e-20
0.930202 3.11727e-18
0.940204 2.18492e-19
0.950206 1.44849e-18
0.960208 1.78053e-18
0.97021 3.07073e-19
0.980212 5.43877e-19
0.990215 3.40889e-19
1.00022 1.03327e-18
1.01022 1.44634e-19
1.02022 2.94237e-18
1.03022 1.40402e-19
1.04023 2.30648e-18
1.05023 6.62673e-18
1.06023 6.3874e-20
1.07023 1.97791e-17
1.08023 9.82466e-20
1.09024 6.25926e-19
1.10024 3.74323e-20
1.11024 1.03768e-18
1.12024 9.13572e-20
1.13024 4.86045e-19
1.14025 2.76109e+07
1.15025 1.07808e+07
1.16025 1.22213e+07
1.17025 1.16369e+07
1.18026 6.97355e+06
1.19026 7.20293e+06
1.20026 1.41154e+06
1.21026 2.51747e+06
1.22026 4.37375e+06
1.23027 2.1925e+06
1.24027 5.13543e+06
1.25027 3.57803e+06
1.26027 3.35855e+06
1.27028 4.87312e+06
1.28028 3.11142e+06
1.29028 6.87277e+06
1.30028 3.7568e+06
1.31028 972959
1.32029 2.91035e+06
1.33029 1.90424e+06
1.34029 4.50075e+06
1.35029 1.67904e+06
1.36029 1.9445e+06
1.3703 2.57269e+06
1.3803 2.17715e+06
1.3903 663901
1.4003 355718
1.41031 613826
1.42031 2.57193e+06
1.43031 2.209e+06
1.44031 877614
1.45031 349810
1.46032 175233
1.47032 683627
1.48032 397104
1.49032 1.83972e+06
1.50033 936890
1.51033 774019
1.52033 617267
1.53033 663308
1.54033 147770
1.55034 906628
1.56034 642515
1.57034 2.59135e+06
1.58034 1.76997e+06
1.59034 2.21352e+06
1.60035 715545
1.61035 549140
1.62035 332491
1.63035 118467
1.64036 1.11725e+06
1.65036 628204
1.66036 779816
1.67036 229816
1.68036 428427
1.69037 233798
1.70037 27094.6
1.71037 189846
1.72037 639988
1.73038 266632
1.74038 90337.6
1.75038 1.23653e+06
1.76038 398418
1.77038 346678
1.78039 484255
1.79039 332255
1.80039 486806
1.81039 258212
1.82039 489720
1.8304 54015.9
1.8404 790132
1.8504 1.03117e+06
1.8604 519898
1.87041 1.55813e+06
1.88041 398551
1.89041 759942
1.90041 88273.5
1.91041 934104
1.92042 639338
1.93042 25623.6
1.94042 160998
1.95042 460647
1.96042 149764
1.97043 213638
1.98043 270639
1.99043 303632
2.00043 449077
2.01044 0.0177427
2.02044 334453
2.03044 215696
2.04044 308979
2.05044 53917.1
2.06045 215835
2.07045 0.0238965
2.08045 353998
2.09045 78296.3
2.10046 212674
2.11046 513413
2.12046 50973.8
2.13046 254180
2.14046 386288
2.15047 6402.38
2.16047 57797.4
2.17047 649391
2.18047 226463
2.19047 4762.98
2.20048 124406
2.21048 0.0100588
2.22048 300557
2.23048 422179
2.24049 197216
2.25049 283405
2.26049 75640.3
2.27049 2.03986e+06
2.28049 1.12647e+06
2.2905 620525
2.3005 747650
2.3105 457120
2.3205 230287
2.33051 732220
2.34051 839033
2.35051 676779
2.36051 1.08322e+06
2.37051 285131
2.38052 2.30615e+08
2.39052 925991
2.40052 1.19665e+10
2.41052 700237
2.42052 682743
2.43053 426326
2.44053 326818
2.45053 599432
2.46053 383401
2.47054 634761
2.48054 487085
2.49054 227702
2.50054 787654
2.51054 191251
2.52055 1.10704e+06
2.53055 628095
2.54055 402979
2.55055 456077
2.56055 892822
2.57056 429852
2.58056 488317
2.59056 697729
2.60056 831432
2.61057 381546
2.62057 297926
2.63057 653398
2.64057 513916
2.65057 200522
2.66058 297708
2.67058 166910
2.68058 591324
2.69058 73413.2
2.70059 113555
2.71059 946857
2.72059 760683
2.73059 62883.3
2.74059 578263
2.7506 791594
2.7606 936094
2.7706 402728
2.7806 421892
2.7906 536508
2.80061 471943
2.81061 279033
2.82061 590271
2.83061 142343
2.84062 576462
2.85062 573267
2.85712 0.0