File: SRC_files/py_figures/XRD_data/n1000_p0.txt
0.0 0.0
0.0100022 5.94147e-18
0.0200043 0.0
0.0300065 2.33937e-18
0.0400087 0.0
0.0500108 1.93737e-18
0.060013 0.0
0.0700152 2.0821e-18
0.0800173 3.37883e-18
0.0900195 0.0
0.100022 3.11665e-20
0.110024 0.0
0.120026 9.38452e-19
0.130028 0.0
0.14003 3.59396e-19
0.150033 0.0
0.160035 0.0
0.170037 3.02165e-18
0.180039 0.0
0.190041 3.58504e-18
0.200043 0.0
0.210046 3.06397e-19
0.220048 0.0
0.23005 0.0
0.240052 1.8779e-19
0.250054 0.0
0.260056 1.47022e-18
0.270059 0.0
0.280061 2.39391e-19
0.290063 0.0
0.300065 0.0
0.310067 4.74809e-19
0.320069 0.0
0.330072 2.13359e-19
0.340074 0.0
0.350076 3.51081e-19
0.360078 0.0
0.37008 9.78578e-18
0.380082 3.24704e-18
0.390085 0.0
0.400087 6.31182e-19
0.410089 0.0
0.420091 1.69102e-19
0.430093 0.0
0.440095 2.83695e-19
0.450098 0.0
0.4601 0.0
0.470102 1.62893e-20
0.480104 0.0
0.490106 3.36162e-19
0.500108 0.0
0.510111 1.7958e-19
0.520113 0.0
0.530115 0.0
0.540117 1.62127e-19
0.550119 0.0
0.560121 2.08547e-19
0.570124 4.19505e-21
0.580126 1.51811e-18
0.590128 6.28435e-21
0.60013 2.03678e-20
0.610132 9.41672e-19
0.620134 2.52631e-19
0.630137 8.25575e-19
0.640139 6.67297e-21
0.650141 3.18519e-19
0.660143 8.77645e-21
0.670145 3.90344e-19
0.680147 1.97682e-18
0.69015 1.74776e-20
0.700152 2.10763e-18
0.710154 8.04059e-20
0.720156 5.52832e-19
0.730158 2.60568e-19
0.74016 4.67204e-19
0.750163 6.10783e-20
0.760165 6.93367e-21
0.770167 8.45918e-19
0.780169 1.08668e-20
0.790171 1.08027e-18
0.800173 4.93244e-18
0.810176 1.08314e-19
0.820178 8.40063e-20
0.83018 0.0
0.840182 6.65736e-21
0.850184 0.0
0.860186 1.30403e-17
0.870189 1.47618e-20
0.880191 6.34747e-19
0.890193 3.00577e-19
0.900195 0.0
0.910197 2.16061e-19
0.920199 4.5629e-20
0.930202 3.46469e-18
0.940204 1.16695e-19
0.950206 2.43824e-18
0.960208 1.72148e-18
0.97021 1.00783e-19
0.980212 5.43877e-19
0.990215 3.40889e-19
1.00022 1.13394e-18
1.01022 1.44634e-19
1.02022 2.41602e-18
1.03022 1.40402e-19
1.04023 1.86616e-18
1.05023 6.62673e-18
1.06023 7.24554e-20
1.07023 1.98125e-17
1.08023 9.82466e-20
1.09024 6.25926e-19
1.10024 2.98126e-20
1.11024 1.07145e-18
1.12024 7.90941e-20
1.13024 4.86045e-19
1.14025 9.13132e-19
1.15025 1.81364e-18
1.16025 1.31671e-18
1.17025 6.87197e-19
1.18026 1.61737e-18
1.19026 5.85679e-18
1.20026 4.5474e-18
1.21026 1.88564e-18
1.22026 4.06908e-19
1.23027 7.96573e-18
1.24027 1.32383e-18
1.25027 5.37134e-19
1.26027 2.03163e-18
1.27028 1.25955e-18
1.28028 1.40531e-18
1.29028 1.80903e-18
1.30028 6.04893e-19
1.31028 1.17065e-18
1.32029 8.40194e-18
1.33029 2.29692e-18
1.34029 1.79953e-18
1.35029 2.08647e-18
1.36029 1.15416e-18
1.3703 2.15413e-19
1.3803 4.88755e-19
1.3903 1.57329e-18
1.4003 7.23625e-19
1.41031 4.04302e-18
1.42031 1.2202e-18
1.43031 1.07429e-18
1.44031 1.00461e-18
1.45031 1.28595e-18
1.46032 9.93403e-19
1.47032 1.62649e-18
1.48032 6.77689e-19
1.49032 6.99827e-19
1.50033 1.09621e-18
1.51033 9.73812e-19
1.52033 1.04343e-18
1.53033 9.83031e-19
1.54033 2.88029e-17
1.55034 5.43395e-18
1.56034 6.09488e-19
1.57034 1.36911e-18
1.58034 7.05478e-19
1.59034 1.8436e-19
1.60035 8.56652e-19
1.61035 9.61999e-19
1.62035 1.18156e-18
1.63035 4.02364e-19
1.64036 3.6252e-18
1.65036 1.55658e-18
1.66036 3.87349e-19
1.67036 4.97328e-19
1.68036 1.89987e-19
1.69037 4.47096e-19
1.70037 6.6268e-19
1.71037 1.28559e-18
1.72037 8.01037e-19
1.73038 7.05571e-19
1.74038 4.20223e-19
1.75038 1.55076e-18
1.76038 5.23494e-19
1.77038 5.046e-19
1.78039 4.05227e-18
1.79039 8.55197e-19
1.80039 4.76155e-18
1.81039 7.60205e-18
1.82039 1.72873e-18
1.8304 3.90719e-18
1.8404 1.04738e-18
1.8504 1.63111e-18
1.8604 1.78489e-18
1.87041 7.01554e-19
1.88041 1.61716e-18
1.89041 4.51696e-19
1.90041 2.20271e-18
1.91041 8.29624e-19
1.92042 7.46065e-18
1.93042 1.26716e-18
1.94042 1.14274e-18
1.95042 7.84045e-19
1.96042 4.62627e-18
1.97043 3.85259e-18
1.98043 1.78368e-18
1.99043 7.96313e-18
2.00043 3.23115e-18
2.01044 8.61995e-19
2.02044 1.24157e-18
2.03044 1.60062e-18
2.04044 2.61691e-18
2.05044 1.32727e-18
2.06045 9.2367e-18
2.07045 2.04313e-18
2.08045 1.31275e-16
2.09045 7.74191e-18
2.10046 2.5034e-18
2.11046 3.63555e-18
2.12046 9.23215e-18
2.13046 2.54417e-18
2.14046 1.44319e-18
2.15047 2.13565e-18
2.16047 2.56941e-18
2.17047 6.92385e-19
2.18047 1.17509e-18
2.19047 1.32247e-18
2.20048 3.82409e-18
2.21048 5.99148e-19
2.22048 2.13651e-18
2.23048 1.035e-18
2.24049 2.37342e-18
2.25049 2.28893e-18
2.26049 9.39798e-19
2.27049 6.53932e-18
2.28049 1.65758e-18
2.2905 1.17542e-18
2.3005 3.1658e-18
2.3105 8.73968e-19
2.3205 3.08478e-18
2.33051 2.68859e-18
2.34051 2.81701e-18
2.35051 2.27186e-18
2.36051 3.06358e-18
2.37051 4.61089e-18
2.38052 3.28093e+08
2.39052 3.64211e-18
2.40052 1.19659e+10
2.41052 7.46525e-18
2.42052 1.40159e-17
2.43053 3.2899e-18
2.44053 3.24582e-18
2.45053 3.76062e-18
2.46053 2.55212e-18
2.47054 1.64425e-18
2.48054 4.69184e-18
2.49054 6.06642e-18
2.50054 2.01331e-18
2.51054 1.56354e-17
2.52055 4.88154e-18
2.53055 1.95944e-17
2.54055 2.43974e-18
2.55055 2.72502e-18
2.56055 6.2616e-18
2.57056 3.41457e-18
2.58056 3.66057e-18
2.59056 4.13552e-18
2.60056 2.79407e-18
2.61057 2.81829e-18
2.62057 1.43516e-18
2.63057 6.35164e-18
2.64057 1.07959e-17
2.65057 3.31002e-17
2.66058 3.29226e-17
2.67058 2.38601e-18
2.68058 3.35012e-18
2.69058 3.72278e-18
2.70059 4.63018e-18
2.71059 5.63193e-18
2.72059 1.22758e-18
2.73059 2.65688e-18
2.74059 4.69341e-18
2.7506 2.66521e-18
2.7606 4.45159e-17
2.7706 1.97934e-18
2.7806 2.73595e-18
2.7906 2.13171e-18
2.80061 1.94567e-18
2.81061 4.66084e-18
2.82061 2.85692e-18
2.83061 3.03725e-18
2.84062 8.96958e-18
2.85062 2.92472e-18
2.85712 0.0